XDAC V1.4 Datafile V1
"CT_I_0-8m.005" created on 4/21/09 at 9:32:29 PM on X-23A2
Diffraction element= Si (311).  Ring energy= 2.80 GeV
E0= 4966.00
NUM_REGIONS= 3
SRB= -30 -20 30 14k
SRSS= 1 0.3 0.05k
SPP= 1 1 0.5k
Settling time= 0.10


Offsets= 121.25 50.00 0.00 0.00 0.00 0.00 1.00 1.00 2.00 1.25 1.25 1.00 1.25 1.25 0.00
Gains= 9.00 10.00 8.00 8.00 8.00 8.00 8.00 8.00 8.00 8.00 10.00 9.00 9.00 9.00 1.00
CaTiO3 - irradiated sample. 0.8 micron depth. Angle = 3.3.


--------------------------------------------------------------------------------
        Energy            I0            It           If1           If2           If3           If4        Islow1        Islow2        Islow3        Islow4        Ifast1        Ifast2        Ifast3        Ifast4       IntTime
    4935.99952     3811.7500        7.0000       34.0000      150.0000      131.0000       66.0000     4711.0000    16105.0000    15041.0000     4999.7500     4701.7500    16212.0000    15061.7500     5002.7500        1.0000
    4937.00068     3824.7500        8.0000       29.0000      135.0000      114.0000       71.0000     4659.0000    15751.0000    15045.0000     4971.7500     4647.7500    15829.0000    15066.7500     4987.7500        1.0000
    4938.00067     3833.7500        7.0000       31.0000      134.0000      121.0000       58.0000     4663.0000    15784.0000    15015.0000     5130.7500     4653.7500    15862.0000    15043.7500     5122.7500        1.0000
    4938.99948     3846.7500        7.0000       28.0000      127.0000      132.0000       75.0000     4606.0000    15892.0000    15238.0000     5266.7500     4588.7500    15967.0000    15246.7500     5278.7500        1.0000
    4939.99914     3861.7500        7.0000       34.0000      164.0000      134.0000       84.0000     4836.0000    16151.0000    15067.0000     5285.7500     4834.7500    16202.0000    15095.7500     5298.7500        1.0000
    4940.99966     3872.7500        6.0000       40.0000      135.0000      124.0000       89.0000     4765.0000    16047.0000    15271.0000     5336.7500     4760.7500    16136.0000    15275.7500     5340.7500        1.0000
    4941.99899     3888.7500        7.0000       43.0000      150.0000      131.0000       71.0000     4835.0000    16230.0000    15441.0000     5331.7500     4822.7500    16292.0000    15477.7500     5335.7500        1.0000
    4942.99917     3900.7500        8.0000       25.0000      144.0000      137.0000       66.0000     4846.0000    16096.0000    15660.0000     5240.7500     4841.7500    16163.0000    15707.7500     5243.7500        1.0000
    4944.00021     3910.7500        8.0000       34.0000      190.0000      131.0000       71.0000     4844.0000    16418.0000    15562.0000     5219.7500     4825.7500    16494.0000    15598.7500     5230.7500        1.0000
    4945.00006     3919.7500        6.0000       35.0000      191.0000      137.0000       81.0000     4903.0000    16362.0000    15627.0000     5328.7500     4895.7500    16437.0000    15684.7500     5334.7500        1.0000
    4946.00075     3931.7500        8.0000       42.0000      153.0000      138.0000       77.0000     4813.0000    16084.0000    15580.0000     5327.7500     4805.7500    16164.0000    15617.7500     5334.7500        1.0000
    4946.30030     3937.7500        8.0000       35.0000      165.0000      125.0000       81.0000     4778.0000    16220.0000    15532.0000     5215.7500     4769.7500    16306.0000    15564.7500     5235.7500        1.0000
    4946.59993     3939.7500        8.0000       43.0000      183.0000      161.0000       78.0000     4827.0000    16431.0000    15856.0000     5428.7500     4818.7500    16477.0000    15885.7500     5438.7500        1.0000
    4946.89964     3942.7500        7.0000       46.0000      170.0000      147.0000       67.0000     4877.0000    16363.0000    15899.0000     5459.7500     4873.7500    16432.0000    15914.7500     5476.7500        1.0000
    4947.19942     3947.7500        8.0000       43.0000      183.0000      152.0000       66.0000     4794.0000    16423.0000    15633.0000     5451.7500     4787.7500    16495.0000    15668.7500     5456.7500        1.0000
    4947.49928     3949.7500        7.0000       24.0000      162.0000      164.0000       75.0000     4819.0000    16435.0000    15661.0000     5257.7500     4806.7500    16477.0000    15688.7500     5265.7500        1.0000
    4947.79922     3950.7500        8.0000       37.0000      185.0000      143.0000       91.0000     4866.0000    16449.0000    15844.0000     5452.7500     4858.7500    16525.0000    15862.7500     5464.7500        1.0000
    4948.09923     3954.7500        7.0000       46.0000      173.0000      144.0000       78.0000     4840.0000    16484.0000    15963.0000     5417.7500     4833.7500    16559.0000    15981.7500     5420.7500        1.0000
    4948.39932     3955.7500        8.0000       42.0000      210.0000      157.0000       68.0000     4790.0000    16265.0000    15850.0000     5440.7500     4777.7500    16338.0000    15858.7500     5447.7500        1.0000
    4948.69948     3960.7500        7.0000       39.0000      199.0000      145.0000       76.0000     4837.0000    16724.0000    15890.0000     5576.7500     4819.7500    16787.0000    15929.7500     5579.7500        1.0000
    4948.99972     3962.7500        7.0000       41.0000      176.0000      145.0000       78.0000     4804.0000    16506.0000    15891.0000     5495.7500     4791.7500    16588.0000    15932.7500     5510.7500        1.0000
    4949.30004     3965.7500        8.0000       53.0000      193.0000      136.0000       75.0000     4802.0000    16582.0000    16092.0000     5474.7500     4789.7500    16655.0000    16113.7500     5484.7500        1.0000
    4949.60043     3966.7500        8.0000       47.0000      174.0000      155.0000       98.0000     4846.0000    16634.0000    16069.0000     5394.7500     4840.7500    16711.0000    16086.7500     5403.7500        1.0000
    4949.90090     3970.7500        9.0000       41.0000      178.0000      155.0000       79.0000     5011.0000    16651.0000    16135.0000     5515.7500     5002.7500    16713.0000    16138.7500     5526.7500        1.0000
    4950.19939     3973.7500        8.0000       43.0000      159.0000      161.0000       83.0000     4874.0000    16379.0000    15908.0000     5560.7500     4872.7500    16455.0000    15932.7500     5551.7500        1.0000
    4950.50001     3974.7500        8.0000       42.0000      193.0000      148.0000       64.0000     4876.0000    16297.0000    16156.0000     5606.7500     4865.7500    16393.0000    16166.7500     5608.7500        1.0000
    4950.80071     3978.7500        7.0000       41.0000      190.0000      155.0000       67.0000     4911.0000    16406.0000    16022.0000     5491.7500     4899.7500    16489.0000    16058.7500     5499.7500        1.0000
    4951.09942     3981.7500        8.0000       36.0000      188.0000      158.0000       78.0000     4880.0000    16606.0000    16051.0000     5470.7500     4874.7500    16683.0000    16072.7500     5477.7500        1.0000
    4951.40027     3980.7500        7.0000       42.0000      206.0000      163.0000       92.0000     4810.0000    16631.0000    16140.0000     5439.7500     4800.7500    16693.0000    16160.7500     5449.7500        1.0000
    4951.69914     3985.7500        8.0000       33.0000      182.0000      189.0000       87.0000     4865.0000    16688.0000    15838.0000     5590.7500     4851.7500    16751.0000    15881.7500     5601.7500        1.0000
    4952.00014     3988.7500        8.0000       32.0000      206.0000      169.0000       82.0000     4947.0000    16586.0000    16270.0000     5529.7500     4937.7500    16664.0000    16309.7500     5534.7500        1.0000
    4952.29916     3990.7500        7.0000       37.0000      190.0000      157.0000       70.0000     4850.0000    16479.0000    16079.0000     5568.7500     4839.7500    16528.0000    16146.7500     5566.7500        1.0000
    4952.60031     3993.7500        8.0000       44.0000      192.0000      146.0000       85.0000     4879.0000    16395.0000    16038.0000     5436.7500     4870.7500    16463.0000    16073.7500     5439.7500        1.0000
    4952.89948     3996.7500        7.0000       45.0000      186.0000      179.0000       83.0000     4957.0000    16605.0000    16110.0000     5575.7500     4943.7500    16683.0000    16128.7500     5571.7500        1.0000
    4953.20079     4001.7500        8.0000       37.0000      178.0000      151.0000       70.0000     4900.0000    16667.0000    15919.0000     5545.7500     4888.7500    16722.0000    15948.7500     5555.7500        1.0000
    4953.50011     3999.7500        7.0000       52.0000      177.0000      159.0000       85.0000     4992.0000    16656.0000    16280.0000     5582.7500     4978.7500    16757.0000    16331.7500     5597.7500        1.0000
    4953.79951     4001.7500        8.0000       43.0000      188.0000      200.0000       81.0000     4865.0000    16637.0000    16227.0000     5654.7500     4858.7500    16718.0000    16261.7500     5672.7500        1.0000
    4954.09898     4006.7500        9.0000       48.0000      201.0000      173.0000       86.0000     5054.0000    16720.0000    16143.0000     5577.7500     5044.7500    16771.0000    16191.7500     5594.7500        1.0000
    4954.40059     4007.7500        8.0000       43.0000      214.0000      160.0000       88.0000     4884.0000    16501.0000    16137.0000     5591.7500     4872.7500    16580.0000    16170.7500     5596.7500        1.0000
    4954.70021     4011.7500        8.0000       51.0000      227.0000      181.0000       75.0000     5013.0000    16841.0000    16170.0000     5644.7500     5005.7500    16907.0000    16207.7500     5655.7500        1.0000
    4954.99991     4011.7500        8.0000       58.0000      207.0000      184.0000       91.0000     4970.0000    16522.0000    16223.0000     5529.7500     4963.7500    16610.0000    16250.7500     5535.7500        1.0000
    4955.29968     4014.7500        7.0000       58.0000      221.0000      162.0000       81.0000     4863.0000    16780.0000    16420.0000     5470.7500     4851.7500    16845.0000    16449.7500     5488.7500        1.0000
    4955.59953     4014.7500        9.0000       65.0000      212.0000      184.0000       71.0000     4927.0000    16783.0000    16209.0000     5600.7500     4922.7500    16861.0000    16258.7500     5608.7500        1.0000
    4955.89946     4020.7500        8.0000       45.0000      218.0000      212.0000       88.0000     4863.0000    16845.0000    16343.0000     5729.7500     4859.7500    16917.0000    16376.7500     5743.7500        1.0000
    4956.19946     4022.7500        9.0000       61.0000      220.0000      210.0000       96.0000     5026.0000    16824.0000    16197.0000     5453.7500     5009.7500    16896.0000    16217.7500     5460.7500        1.0000
    4956.49953     4024.7500        8.0000       48.0000      231.0000      199.0000       94.0000     4992.0000    16639.0000    16388.0000     5651.7500     4969.7500    16728.0000    16386.7500     5666.7500        1.0000
    4956.79968     4027.7500        8.0000       42.0000      219.0000      211.0000      100.0000     4888.0000    16791.0000    16425.0000     5746.7500     4876.7500    16858.0000    16460.7500     5759.7500        1.0000
    4957.09991     4029.7500        7.0000       53.0000      215.0000      206.0000      100.0000     5034.0000    16720.0000    16424.0000     5471.7500     5024.7500    16789.0000    16451.7500     5482.7500        1.0000
    4957.40021     4034.7500        9.0000       54.0000      239.0000      206.0000       88.0000     5099.0000    16928.0000    16375.0000     5547.7500     5082.7500    16999.0000    16390.7500     5545.7500        1.0000
    4957.70059     4036.7500        8.0000       50.0000      222.0000      223.0000       94.0000     4907.0000    16924.0000    16352.0000     5543.7500     4894.7500    16987.0000    16399.7500     5554.7500        1.0000
    4957.99897     4038.7500        8.0000       52.0000      249.0000      180.0000       98.0000     4819.0000    16876.0000    16428.0000     5637.7500     4808.7500    16938.0000    16476.7500     5652.7500        1.0000
    4958.29950     4039.7500        8.0000       54.0000      258.0000      232.0000       99.0000     5031.0000    16829.0000    16448.0000     5590.7500     5021.7500    16898.0000    16475.7500     5600.7500        1.0000
    4958.60011     4043.7500        8.0000       49.0000      245.0000      202.0000      116.0000     5012.0000    16767.0000    16526.0000     5565.7500     4996.7500    16826.0000    16568.7500     5569.7500        1.0000
    4958.90079     4046.7500        8.0000       59.0000      255.0000      196.0000       89.0000     4966.0000    16861.0000    16517.0000     5675.7500     4951.7500    16953.0000    16546.7500     5686.7500        1.0000
    4959.19947     4052.7500        8.0000       62.0000      272.0000      200.0000      108.0000     4913.0000    16825.0000    16536.0000     5778.7500     4894.7500    16908.0000    16561.7500     5781.7500        1.0000
    4959.50030     4054.7500        8.0000       64.0000      264.0000      194.0000      110.0000     4849.0000    17142.0000    16367.0000     5654.7500     4826.7500    17201.0000    16363.7500     5660.7500        1.0000
    4959.79913     4059.7500        9.0000       80.0000      250.0000      250.0000      116.0000     5114.0000    16828.0000    16573.0000     5800.7500     5101.7500    16883.0000    16605.7500     5801.7500        1.0000
    4960.10012     4061.7500        7.0000       62.0000      258.0000      227.0000      103.0000     5061.0000    17055.0000    16595.0000     5504.7500     5047.7500    17126.0000    16631.7500     5509.7500        1.0000
    4960.39910     4066.7500        8.0000       67.0000      277.0000      209.0000      106.0000     4896.0000    16969.0000    16422.0000     5667.7500     4885.7500    17017.0000    16454.7500     5680.7500        1.0000
    4960.70023     4067.7500       10.0000       63.0000      262.0000      230.0000      138.0000     4920.0000    17072.0000    16624.0000     5779.7500     4905.7500    17149.0000    16651.7500     5778.7500        1.0000
    4960.99936     4071.7500        8.0000       75.0000      274.0000      254.0000      110.0000     5070.0000    16997.0000    16716.0000     5806.7500     5053.7500    17067.0000    16734.7500     5824.7500        1.0000
    4961.30065     4074.7500        8.0000       81.0000      255.0000      220.0000      116.0000     5046.0000    16904.0000    16434.0000     5656.7500     5034.7500    16981.0000    16449.7500     5668.7500        1.0000
    4961.59993     4077.7500        8.0000       77.0000      311.0000      257.0000      114.0000     4994.0000    17461.0000    16643.0000     5723.7500     4987.7500    17547.0000    16679.7500     5729.7500        1.0000
    4961.89928     4077.7500        9.0000       79.0000      306.0000      265.0000      112.0000     4987.0000    17094.0000    16625.0000     5809.7500     4978.7500    17170.0000    16670.7500     5822.7500        1.0000
    4962.20079     4081.7500        8.0000       86.0000      303.0000      239.0000      105.0000     4983.0000    17092.0000    16474.0000     5705.7500     4967.7500    17160.0000    16493.7500     5712.7500        1.0000
    4962.50030     4086.7500        9.0000       77.0000      291.0000      311.0000      116.0000     5223.0000    16842.0000    16752.0000     5670.7500     5204.7500    16923.0000    16802.7500     5687.7500        1.0000
    4962.79988     4087.7500        8.0000       70.0000      340.0000      244.0000      140.0000     4886.0000    17023.0000    16546.0000     5725.7500     4874.7500    17096.0000    16582.7500     5738.7500        1.0000
    4963.09954     4088.7500        8.0000       91.0000      311.0000      275.0000      122.0000     5058.0000    17200.0000    16699.0000     5719.7500     5049.7500    17268.0000    16763.7500     5720.7500        1.0000
    4963.39927     4092.7500        8.0000       78.0000      362.0000      269.0000      136.0000     5096.0000    17382.0000    16782.0000     5821.7500     5091.7500    17487.0000    16834.7500     5833.7500        1.0000
    4963.69907     4094.7500        9.0000       93.0000      337.0000      308.0000      133.0000     5023.0000    17358.0000    16822.0000     5725.7500     5005.7500    17432.0000    16849.7500     5739.7500        1.0000
    4964.00104     4097.7500        8.0000       81.0000      344.0000      326.0000      138.0000     5131.0000    17236.0000    16893.0000     5767.7500     5123.7500    17315.0000    16932.7500     5772.7500        1.0000
    4964.30099     4102.7500        8.0000      104.0000      349.0000      344.0000      139.0000     5139.0000    17233.0000    16704.0000     5763.7500     5127.7500    17310.0000    16746.7500     5771.7500        1.0000
    4964.60102     4103.7500        8.0000      113.0000      337.0000      328.0000      138.0000     5096.0000    17141.0000    16901.0000     5799.7500     5081.7500    17201.0000    16940.7500     5795.7500        1.0000
    4964.89905     4106.7500        7.0000       99.0000      358.0000      358.0000      146.0000     5210.0000    17212.0000    17135.0000     5906.7500     5198.7500    17287.0000    17177.7500     5904.7500        1.0000
    4965.19923     4109.7500        8.0000       96.0000      341.0000      344.0000      142.0000     5178.0000    17359.0000    16908.0000     5860.7500     5160.7500    17442.0000    16941.7500     5871.7500        1.0000
    4965.49948     4111.7500        8.0000       97.0000      386.0000      361.0000      176.0000     5034.0000    17350.0000    16966.0000     5804.7500     5018.7500    17431.0000    16996.7500     5800.7500        1.0000
    4965.79981     4114.7500        9.0000      101.0000      385.0000      360.0000      155.0000     5107.0000    17308.0000    17008.0000     5753.7500     5086.7500    17405.0000    17073.7500     5757.7500        1.0000
    4966.10021     4117.7500        7.0000      103.0000      453.0000      435.0000      186.0000     5119.0000    17374.0000    17034.0000     5877.7500     5108.7500    17444.0000    17068.7500     5893.7500        1.0000
    4966.40069     4122.7500        9.0000      139.0000      432.0000      366.0000      157.0000     5121.0000    17408.0000    17032.0000     5803.7500     5105.7500    17484.0000    17103.7500     5820.7500        1.0000
    4966.69916     4122.7500        8.0000      104.0000      452.0000      427.0000      170.0000     5010.0000    17383.0000    16827.0000     5918.7500     5000.7500    17478.0000    16841.7500     5927.7500        1.0000
    4966.99979     4124.7500        8.0000      136.0000      485.0000      411.0000      175.0000     5150.0000    17635.0000    17011.0000     5842.7500     5135.7500    17720.0000    17069.7500     5838.7500        1.0000
    4967.30049     4128.7500        9.0000      128.0000      531.0000      496.0000      186.0000     5087.0000    17684.0000    17039.0000     5825.7500     5070.7500    17767.0000    17078.7500     5811.7500        1.0000
    4967.59918     4132.7500        8.0000      137.0000      573.0000      550.0000      225.0000     5291.0000    17854.0000    17129.0000     5853.7500     5276.7500    17948.0000    17148.7500     5859.7500        1.0000
    4967.90004     4133.7500        9.0000      194.0000      616.0000      544.0000      228.0000     5304.0000    17728.0000    17213.0000     5952.7500     5293.7500    17806.0000    17256.7500     5961.7500        1.0000
