XDAC V1.4 Datafile V1
"cu_kmdg1.020" created on 6/22/2012 at 5:46:29 AM on X-23A2
Diffraction element= Si (311).  Ring energy= 2.80 GeV
E0= 8979.00
NUM_REGIONS= 4
SRB= -200 -30 30 60 13k
SRSS= 10 0.5 0.05k 0.05k
SPP= 1 1 1 0.25k
Settling time= 0.20


Offsets= 115.00 54.25 0.00 0.00 0.00 0.00 10.50 5.25 5.25 5.25 12.25 10.75 5.25 10.50 98.00 0.00
Gains= 8.00 9.00 0.00 0.00 0.00 0.00 0.00 8.00 8.00 8.00 0.00 8.00 8.00 8.00 10.00 1.00
Green glass KMDG1


--------------------------------------------------------------------------------
        Energy            I0            It         Ifch1         Ifch2         Ifch3         Ifch4       Ifslow1       Ifslow2       Ifslow3       Ifslow4       Iffast1       Iffast2       Iffast3       Iffast4          Iref       IntTime
    8779.00083     4817.0000        2.7500      566.0000      609.0000      373.0000      348.0000    79438.5000    72299.7500    56376.7500    63449.7500    82356.7500    74659.2500    57733.7500    65286.5000        1.0000        1.0000
    8788.99736     4685.0000        2.7500      612.0000      579.0000      353.0000      364.0000    77254.5000    70486.7500    54455.7500    62071.7500    80088.7500    72684.2500    55791.7500    63735.5000        1.0000        1.0000
    8799.00154     4833.0000        2.7500      585.0000      615.0000      359.0000      392.0000    79777.5000    72790.7500    56879.7500    63414.7500    82745.7500    75242.2500    58331.7500    65187.5000        2.0000        1.0000
    8809.00224     4807.0000        2.7500      559.0000      638.0000      398.0000      400.0000    78998.5000    72739.7500    56774.7500    63608.7500    81958.7500    75188.2500    58161.7500    65387.5000        1.0000        1.0000
    8818.99942     4810.0000        3.7500      617.0000      609.0000      382.0000      401.0000    79380.5000    72756.7500    57002.7500    63701.7500    82458.7500    75201.2500    58460.7500    65421.5000        1.0000        1.0000
    8828.99859     4690.0000        3.7500      544.0000      567.0000      454.0000      375.0000    77932.5000    71810.7500    55899.7500    62458.7500    80817.7500    74125.2500    57356.7500    64085.5000        2.0000        1.0000
    8838.99973     4793.0000        2.7500      595.0000      588.0000      449.0000      403.0000    79630.5000    72973.7500    56878.7500    63498.7500    82637.7500    75379.2500    58337.7500    65328.5000        2.0000        1.0000
    8848.99723     4802.0000        3.7500      599.0000      589.0000      403.0000      412.0000    79616.5000    72258.7500    56668.7500    64204.7500    82576.7500    74563.2500    58077.7500    65970.5000        1.0000        1.0000
    8859.00221     4761.0000        2.7500      579.0000      605.0000      415.0000      445.0000    79650.5000    71812.7500    56952.7500    63144.7500    82541.7500    74223.2500    58366.7500    64983.5000        1.0000        1.0000
    8868.99790     4781.0000        2.7500      628.0000      607.0000      453.0000      410.0000    79913.5000    72721.7500    57045.7500    63681.7500    82986.7500    75033.2500    58426.7500    65511.5000        1.0000        1.0000
    8879.00099     4766.0000        2.7500      617.0000      608.0000      409.0000      443.0000    79495.5000    72628.7500    57163.7500    63690.7500    82329.7500    74987.2500    58624.7500    65367.5000        1.0000        1.0000
    8889.00031     4764.0000        2.7500      672.0000      651.0000      416.0000      395.0000    79429.5000    73133.7500    56816.7500    64040.7500    82416.7500    75536.2500    58286.7500    65802.5000        1.0000        1.0000
    8899.00138     4661.0000        3.7500      646.0000      578.0000      452.0000      486.0000    78207.5000    71132.7500    55678.7500    62588.7500    81182.7500    73411.2500    57089.7500    64380.5000        2.0000        1.0000
    8908.99860     4748.0000        2.7500      691.0000      662.0000      461.0000      486.0000    79581.5000    72671.7500    56544.7500    63180.7500    82637.7500    74983.2500    57966.7500    64926.5000        1.0000        1.0000
    8918.99751     4741.0000        3.7500      746.0000      695.0000      497.0000      527.0000    79709.5000    72237.7500    56634.7500    63850.7500    82705.7500    74656.2500    58083.7500    65609.5000        2.0000        1.0000
    8928.99809     4731.0000        2.7500      766.0000      746.0000      545.0000      588.0000    79694.5000    72662.7500    56936.7500    63783.7500    82669.7500    75173.2500    58342.7500    65556.5000        1.0000        1.0000
    8939.00030     4738.0000        3.7500      868.0000      804.0000      577.0000      647.0000    80011.5000    72623.7500    56895.7500    64002.7500    82996.7500    75050.2500    58375.7500    65722.5000        1.0000        1.0000
    8948.99851     4737.0000        3.7500     1009.0000      941.0000      652.0000      748.0000    79869.5000    73429.7500    56872.7500    63951.7500    82936.7500    75835.2500    58400.7500    65746.5000        1.0000        1.0000
    8949.49805     4732.0000        3.7500     1002.0000     1031.0000      662.0000      780.0000    79821.5000    73524.7500    56925.7500    64329.7500    82739.7500    75878.2500    58404.7500    66183.5000        1.0000        1.0000
    8949.99760     4727.0000        2.7500      994.0000      889.0000      696.0000      739.0000    80107.5000    73271.7500    56901.7500    63796.7500    83087.7500    75675.2500    58282.7500    65553.5000        1.0000        1.0000
    8950.50279     4727.0000        2.7500     1020.0000      970.0000      688.0000      748.0000    80004.5000    73095.7500    56940.7500    63621.7500    83004.7500    75485.2500    58353.7500    65447.5000        2.0000        1.0000
    8951.00238     4723.0000        3.7500     1050.0000      926.0000      691.0000      767.0000    80150.5000    73005.7500    56791.7500    63774.7500    83136.7500    75539.2500    58183.7500    65620.5000        1.0000        1.0000
    8951.50199     4721.0000        2.7500      994.0000      942.0000      701.0000      794.0000    79885.5000    72934.7500    56958.7500    63711.7500    82896.7500    75323.2500    58399.7500    65492.5000        1.0000        1.0000
    8952.00162     4734.0000        2.7500     1019.0000     1019.0000      661.0000      829.0000    80385.5000    73339.7500    57005.7500    63861.7500    83483.7500    75757.2500    58495.7500    65764.5000        1.0000        1.0000
    8952.50127     4748.0000        3.7500     1028.0000      922.0000      659.0000      797.0000    80466.5000    73330.7500    57374.7500    64248.7500    83570.7500    75761.2500    58824.7500    66070.5000        1.0000        1.0000
    8953.00093     4731.0000        2.7500     1059.0000     1006.0000      654.0000      779.0000    79729.5000    73029.7500    56739.7500    63582.7500    82811.7500    75386.2500    58211.7500    65410.5000        1.0000        1.0000
    8953.50061     4742.0000        2.7500     1090.0000      959.0000      684.0000      834.0000    80475.5000    73472.7500    57436.7500    64250.7500    83561.7500    75903.2500    58835.7500    66037.5000        1.0000        1.0000
    8954.00031     4729.0000        2.7500     1065.0000      960.0000      704.0000      893.0000    80092.5000    73346.7500    57206.7500    63846.7500    83189.7500    75858.2500    58602.7500    65651.5000        2.0000        1.0000
    8954.50003     4732.0000        3.7500     1099.0000      992.0000      755.0000      858.0000    80054.5000    73287.7500    57323.7500    63599.7500    83225.7500    75676.2500    58750.7500    65480.5000        2.0000        1.0000
    8954.99976     4725.0000        2.7500     1085.0000      958.0000      712.0000      874.0000    80409.5000    73177.7500    56899.7500    63768.7500    83310.7500    75676.2500    58337.7500    65581.5000        1.0000        1.0000
    8955.49952     4741.0000        3.7500     1069.0000     1051.0000      739.0000      841.0000    79933.5000    73873.7500    57621.7500    63981.7500    82877.7500    76391.2500    59120.7500    65711.5000        2.0000        1.0000
    8955.99929     4727.0000        2.7500     1049.0000     1025.0000      744.0000      780.0000    80131.5000    72989.7500    57143.7500    63661.7500    83120.7500    75441.2500    58634.7500    65322.5000        1.0000        1.0000
    8956.49907     4739.0000        2.7500     1165.0000     1090.0000      776.0000      860.0000    80126.5000    73639.7500    57343.7500    63894.7500    83198.7500    76198.2500    58835.7500    65695.5000        1.0000        1.0000
    8956.99888     4727.0000        2.7500     1080.0000     1071.0000      747.0000      871.0000    80246.5000    73130.7500    56860.7500    63901.7500    83322.7500    75670.2500    58315.7500    65674.5000        1.0000        1.0000
    8957.49871     4715.0000        2.7500     1145.0000     1076.0000      761.0000      888.0000    80271.5000    73403.7500    56783.7500    63863.7500    83293.7500    75980.2500    58299.7500    65650.5000        1.0000        1.0000
    8957.99855     4733.0000        2.7500     1183.0000     1047.0000      810.0000      878.0000    80253.5000    73522.7500    57114.7500    63986.7500    83370.7500    75972.2500    58540.7500    65856.5000        1.0000        1.0000
    8958.49841     4725.0000        2.7500     1149.0000     1016.0000      780.0000      943.0000    80010.5000    73381.7500    57229.7500    64205.7500    83008.7500    75802.2500    58688.7500    66008.5000        2.0000        1.0000
    8958.99829     4737.0000        3.7500     1142.0000     1059.0000      797.0000      927.0000    80014.5000    73427.7500    57143.7500    64040.7500    83145.7500    75858.2500    58600.7500    65854.5000        2.0000        1.0000
    8959.49818     4733.0000        2.7500     1198.0000     1166.0000      831.0000      928.0000    80258.5000    73000.7500    57271.7500    63962.7500    83271.7500    75501.2500    58683.7500    65695.5000        2.0000        1.0000
    8959.99810     4720.0000        3.7500     1220.0000     1116.0000      857.0000      858.0000    80833.5000    73468.7500    57103.7500    64199.7500    83843.7500    75918.2500    58632.7500    66002.5000        2.0000        1.0000
    8960.49803     4730.0000        3.7500     1327.0000     1136.0000      850.0000      956.0000    80398.5000    73301.7500    57458.7500    64247.7500    83531.7500    75700.2500    58787.7500    66071.5000        1.0000        1.0000
    8960.99798     4733.0000        2.7500     1259.0000     1166.0000      825.0000      977.0000    80339.5000    74076.7500    57049.7500    64479.7500    83325.7500    76526.2500    58584.7500    66321.5000        1.0000        1.0000
    8961.49795     4739.0000        3.7500     1306.0000     1170.0000      856.0000      987.0000    80773.5000    73695.7500    57722.7500    64159.7500    83871.7500    76119.2500    59206.7500    66055.5000        2.0000        1.0000
    8961.99793     4719.0000        2.7500     1305.0000     1241.0000      907.0000      975.0000    79778.5000    73098.7500    57095.7500    64319.7500    82828.7500    75630.2500    58482.7500    66105.5000        1.0000        1.0000
    8962.49793     4718.0000        3.7500     1369.0000     1210.0000      954.0000     1047.0000    80789.5000    73381.7500    57207.7500    64279.7500    83844.7500    75783.2500    58720.7500    66126.5000        1.0000        1.0000
    8962.99796     4727.0000        2.7500     1320.0000     1216.0000      871.0000     1056.0000    80598.5000    73783.7500    57082.7500    64173.7500    83705.7500    76245.2500    58503.7500    65992.5000        1.0000        1.0000
    8963.49799     4728.0000        2.7500     1397.0000     1260.0000      881.0000     1003.0000    80446.5000    73482.7500    56946.7500    64440.7500    83506.7500    75939.2500    58406.7500    66319.5000        1.0000        1.0000
    8963.99805     4733.0000        2.7500     1464.0000     1276.0000      929.0000     1035.0000    80651.5000    73454.7500    57223.7500    64154.7500    83773.7500    75913.2500    58649.7500    65957.5000        1.0000        1.0000
    8964.49813     4728.0000        2.7500     1446.0000     1271.0000      921.0000     1131.0000    80746.5000    73295.7500    57436.7500    64519.7500    83761.7500    75700.2500    58958.7500    66349.5000        1.0000        1.0000
    8964.99822     4726.0000        3.7500     1523.0000     1275.0000      972.0000     1134.0000    80807.5000    73763.7500    57382.7500    64658.7500    83868.7500    76296.2500    58812.7500    66491.5000        1.0000        1.0000
    8965.49833     4726.0000        2.7500     1467.0000     1300.0000     1015.0000     1121.0000    80572.5000    73744.7500    57461.7500    64316.7500    83561.7500    76191.2500    58875.7500    66208.5000        1.0000        1.0000
    8965.99846     4722.0000        3.7500     1526.0000     1395.0000     1011.0000     1130.0000    80004.5000    74216.7500    57123.7500    64367.7500    82937.7500    76662.2500    58511.7500    66085.5000        1.0000        1.0000
    8966.49860     4732.0000        2.7500     1552.0000     1470.0000     1009.0000     1186.0000    80559.5000    73934.7500    57154.7500    64393.7500    83536.7500    76431.2500    58567.7500    66292.5000        1.0000        1.0000
    8966.99877     4734.0000        2.7500     1551.0000     1468.0000     1001.0000     1243.0000    81046.5000    73946.7500    57243.7500    64901.7500    84166.7500    76390.2500    58606.7500    66876.5000        1.0000        1.0000
    8967.49895     4730.0000        3.7500     1624.0000     1425.0000     1098.0000     1252.0000    81176.5000    74330.7500    57378.7500    64471.7500    84302.7500    76871.2500    58876.7500    66290.5000        1.0000        1.0000
    8967.99915     4723.0000        3.7500     1626.0000     1468.0000     1091.0000     1304.0000    80683.5000    73801.7500    57249.7500    64336.7500    83745.7500    76345.2500    58724.7500    66148.5000        1.0000        1.0000
    8968.49937     4716.0000        3.7500     1682.0000     1457.0000     1076.0000     1337.0000    80670.5000    73668.7500    57938.7500    64608.7500    83713.7500    76126.2500    59431.7500    66382.5000        1.0000        1.0000
    8968.99960     4722.0000        3.7500     1715.0000     1529.0000     1143.0000     1336.0000    80798.5000    74064.7500    57264.7500    64371.7500    83845.7500    76603.2500    58731.7500    66191.5000        2.0000        1.0000
    8969.49985     4729.0000        3.7500     1788.0000     1604.0000     1151.0000     1349.0000    81091.5000    74222.7500    57435.7500    64202.7500    84170.7500    76815.2500    58966.7500    66033.5000        1.0000        1.0000
    8970.00012     4728.0000        3.7500     1843.0000     1688.0000     1244.0000     1442.0000    81448.5000    74791.7500    57796.7500    64822.7500    84639.7500    77268.2500    59340.7500    66625.5000        2.0000        1.0000
    8970.50041     4717.0000        3.7500     1877.0000     1674.0000     1236.0000     1516.0000    80995.5000    73779.7500    57637.7500    64705.7500    84136.7500    76277.2500    59049.7500    66546.5000        1.0000        1.0000
    8971.00072     4717.0000        2.7500     1869.0000     1703.0000     1212.0000     1464.0000    80662.5000    73653.7500    57660.7500    64425.7500    83694.7500    76138.2500    59117.7500    66271.5000        2.0000        1.0000
    8971.50104     4716.0000        2.7500     1918.0000     1755.0000     1281.0000     1575.0000    80947.5000    73679.7500    57224.7500    64738.7500    84056.7500    76178.2500    58672.7500    66514.5000        1.0000        1.0000
    8972.00139     4726.0000        3.7500     2068.0000     1783.0000     1331.0000     1679.0000    81066.5000    74254.7500    57401.7500    65213.7500    84179.7500    76816.2500    58929.7500    67071.5000        1.0000        1.0000
    8972.50175     4720.0000        2.7500     2113.0000     1755.0000     1487.0000     1699.0000    81287.5000    74479.7500    57913.7500    65182.7500    84374.7500    76896.2500    59329.7500    67057.5000        1.0000        1.0000
    8973.00212     4715.0000        2.7500     2134.0000     1962.0000     1523.0000     1691.0000    81274.5000    74030.7500    57580.7500    64876.7500    84408.7500    76559.2500    59102.7500    66822.5000        1.0000        1.0000
    8973.50252     4720.0000        2.7500     2267.0000     1961.0000     1528.0000     1835.0000    81091.5000    74269.7500    58023.7500    65258.7500    84202.7500    76799.2500    59453.7500    67161.5000        2.0000        1.0000
    8973.99731     4725.0000        2.7500     2379.0000     2136.0000     1647.0000     1906.0000    81977.5000    75094.7500    58001.7500    65128.7500    85154.7500    77697.2500    59561.7500    66893.5000        2.0000        1.0000
    8974.49774     4707.0000        3.7500     2529.0000     2215.0000     1648.0000     1922.0000    81409.5000    74249.7500    57693.7500    65019.7500    84524.7500    76793.2500    59109.7500    66828.5000        2.0000        1.0000
    8974.99819     4726.0000        2.7500     2656.0000     2361.0000     1754.0000     2119.0000    82110.5000    74953.7500    58563.7500    65578.7500    85362.7500    77485.2500    60130.7500    67503.5000        1.0000        1.0000
    8975.49866     4722.0000        3.7500     2717.0000     2458.0000     1894.0000     2205.0000    82312.5000    74957.7500    58462.7500    65603.7500    85579.7500    77484.2500    59963.7500    67518.5000        1.0000        1.0000
    8975.99914     4716.0000        2.7500     2984.0000     2599.0000     1934.0000     2370.0000    81909.5000    75201.7500    58155.7500    65792.7500    85135.7500    77726.2500    59669.7500    67670.5000        1.0000        1.0000
    8976.49965     4719.0000        3.7500     3129.0000     2749.0000     2133.0000     2582.0000    82014.5000    75382.7500    58573.7500    66096.7500    85221.7500    77940.2500    60078.7500    68048.5000        1.0000        1.0000
    8977.00017     4708.0000        2.7500     3473.0000     2893.0000     2278.0000     2665.0000    83151.5000    75662.7500    58856.7500    65977.7500    86381.7500    78316.2500    60312.7500    67925.5000        1.0000        1.0000
    8977.50070     4715.0000        3.7500     3750.0000     3253.0000     2564.0000     2937.0000    83342.5000    75983.7500    58690.7500    65895.7500    86593.7500    78699.2500    60218.7500    67818.5000        1.0000        1.0000
    8978.00126     4726.0000        2.7500     4280.0000     3822.0000     2881.0000     3402.0000    83799.5000    76625.7500    59500.7500    67014.7500    87264.7500    79393.2500    61117.7500    68967.5000        1.0000        1.0000
    8978.50183     4711.0000        2.7500     4839.0000     4180.0000     3226.0000     3844.0000    84073.5000    76726.7500    59827.7500    67148.7500    87433.7500    79399.2500    61343.7500    69046.5000        1.0000        1.0000
    8979.00242     4713.0000        3.7500     5023.0000     4423.0000     3371.0000     4167.0000    84466.5000    77224.7500    59924.7500    68222.7500    87845.7500    79959.2500    61551.7500    70246.5000        1.0000        1.0000
    8979.49741     4706.0000        2.7500     5373.0000     4591.0000     3567.0000     4170.0000    84692.5000    77175.7500    59989.7500    67358.7500    88215.7500    79825.2500    61620.7500    69329.5000        2.0000        1.0000
    8979.99803     4710.0000        3.7500     5751.0000     5111.0000     3849.0000     4780.0000    85356.5000    77851.7500    60857.7500    68366.7500    88900.7500    80501.2500    62500.7500    70477.5000        1.0000        1.0000
