XDAC V1.4 Datafile V1
"re4chan.001" created on 8/19/09 at 3:14:33 PM on X-23A2
Diffraction element= Si (311).  Ring energy= 2.80 GeV
E0= 10535.00
NUM_REGIONS= 4
SRB= -200 -20 30 60 15k
SRSS= 10 0.4 0.05k 0.05k
SPP= 1 1 1 0.25k
Settling time= 0.50


Offsets= 117.50 82.75 122.00 107.00 961.00 1596.50 1377.75 66.25 10.25 0.00 0.00
Gains= 8.00 8.00 8.00 8.00 7.00 7.00 7.00 7.00 9.00 0.00 1.00
4 channel ion chambers
1: Re powder  2: NH4ReO4  3: ReO3  4: ReO2
50/50 Ar/N2 in I0; Ar in It
--------------------------------------------------------------------------------
        Energy            I0           I02           I03           I04           It1           It2           It3           It4          Iref          temp       IntTime
   10334.99870    13621.5000    14464.2500     8733.0000    12867.0000     2850.0000     5147.5000     5577.2500     3661.7500       72.7500        0.0000        1.0000
   10345.00272    13102.5000    14163.2500     8703.0000    12875.0000     2754.0000     5057.5000     5575.2500     3683.7500       73.7500        0.0000        1.0000
   10354.99923    13581.5000    14429.2500     8716.0000    12838.0000     2874.0000     5183.5000     5614.2500     3698.7500       73.7500        0.0000        1.0000
   10365.00040    13606.5000    14448.2500     8723.0000    12841.0000     2897.0000     5216.5000     5651.2500     3722.7500       74.7500        0.0000        1.0000
   10375.00012    13575.5000    14405.2500     8691.0000    12781.0000     2910.0000     5232.5000     5666.2500     3729.7500       75.7500        0.0000        1.0000
   10384.99837    13554.5000    14388.2500     8683.0000    12773.0000     2916.0000     5240.5000     5673.2500     3740.7500       76.7500        0.0000        1.0000
   10395.00123    13530.5000    14360.2500     8665.0000    12744.0000     2932.0000     5266.5000     5701.2500     3764.7500       77.7500        0.0000        1.0000
   10405.00259    13536.5000    14362.2500     8663.0000    12730.0000     2950.0000     5294.5000     5731.2500     3786.7500       79.7500        0.0000        1.0000
   10415.00243    13497.5000    14307.2500     8623.0000    12661.0000     2960.0000     5304.5000     5738.2500     3791.7500       79.7500        0.0000        1.0000
   10425.00074    13500.5000    14313.2500     8626.0000    12654.0000     2980.0000     5335.5000     5770.2500     3811.7500       80.7500        0.0000        1.0000
   10434.99749    13420.5000    14221.2500     8565.0000    12561.0000     2978.0000     5326.5000     5754.2500     3805.7500       81.7500        0.0000        1.0000
   10444.99878    13445.5000    14246.2500     8580.0000    12585.0000     2986.0000     5342.5000     5775.2500     3828.7500       82.7500        0.0000        1.0000
   10454.99849    13408.5000    14167.2500     8538.0000    12553.0000     2991.0000     5329.5000     5760.2500     3829.7500       82.7500        0.0000        1.0000
   10465.00271    13452.5000    14259.2500     8588.0000    12593.0000     3028.0000     5411.5000     5844.2500     3875.7500       84.7500        0.0000        1.0000
   10474.99920    13428.5000    14230.2500     8568.0000    12555.0000     3030.0000     5412.5000     5847.2500     3878.7500       84.7500        0.0000        1.0000
   10485.00017    13325.5000    14209.2500     8559.0000    12549.0000     3011.0000     5416.5000     5855.2500     3880.7500       84.7500        0.0000        1.0000
   10494.99949    13380.5000    14181.2500     8538.0000    12503.0000     3033.0000     5433.5000     5870.2500     3882.7500       84.7500        0.0000        1.0000
   10504.99713    13383.5000    14179.2500     8534.0000    12492.0000     2995.0000     5389.5000     5829.2500     3843.7500       82.7500        0.0000        1.0000
   10514.99923    13357.5000    14145.2500     8509.0000    12449.0000     2926.0000     5331.5000     5767.2500     3757.7500       77.7500        0.0000        1.0000
   10515.39818    13370.5000    14171.2500     8533.0000    12490.0000     2926.0000     5341.5000     5783.2500     3767.7500       77.7500        0.0000        1.0000
   10515.79714    13372.5000    14164.2500     8523.0000    12476.0000     2916.0000     5322.5000     5760.2500     3747.7500       77.7500        0.0000        1.0000
   10516.20224    13355.5000    14150.2500     8518.0000    12468.0000     2910.0000     5321.5000     5760.2500     3744.7500       76.7500        0.0000        1.0000
   10516.60121    13370.5000    14168.2500     8529.0000    12481.0000     2909.0000     5326.5000     5765.2500     3744.7500       75.7500        0.0000        1.0000
   10517.00018    13371.5000    14169.2500     8529.0000    12479.0000     2902.0000     5319.5000     5761.2500     3736.7500       75.7500        0.0000        1.0000
   10517.39917    13369.5000    14167.2500     8527.0000    12477.0000     2894.0000     5310.5000     5748.2500     3723.7500       75.7500        0.0000        1.0000
   10517.79816    13373.5000    14169.2500     8525.0000    12475.0000     2883.0000     5295.5000     5733.2500     3712.7500       74.7500        0.0000        1.0000
   10518.19716    13372.5000    14170.2500     8529.0000    12481.0000     2877.0000     5294.5000     5732.2500     3707.7500       74.7500        0.0000        1.0000
   10518.60230    13369.5000    14165.2500     8526.0000    12478.0000     2868.0000     5284.5000     5721.2500     3695.7500       73.7500        0.0000        1.0000
   10519.00131    13366.5000    14162.2500     8525.0000    12474.0000     2861.0000     5278.5000     5716.2500     3688.7500       73.7500        0.0000        1.0000
   10519.40033    13357.5000    14153.2500     8516.0000    12457.0000     2848.0000     5265.5000     5699.2500     3672.7500       72.7500        0.0000        1.0000
   10519.79936    13359.5000    14157.2500     8521.0000    12470.0000     2842.0000     5261.5000     5697.2500     3668.7500       71.7500        0.0000        1.0000
   10520.19839    13333.5000    14123.2500     8503.0000    12448.0000     2824.0000     5236.5000     5672.2500     3649.7500       71.7500        0.0000        1.0000
   10520.59743    13367.5000    14166.2500     8526.0000    12476.0000     2823.0000     5241.5000     5678.2500     3646.7500       71.7500        0.0000        1.0000
   10521.00262    13352.5000    14147.2500     8517.0000    12465.0000     2813.0000     5232.5000     5666.2500     3635.7500       69.7500        0.0000        1.0000
   10521.40168    13361.5000    14159.2500     8523.0000    12474.0000     2804.0000     5227.5000     5664.2500     3626.7500       68.7500        0.0000        1.0000
   10521.80074    13361.5000    14159.2500     8521.0000    12467.0000     2784.0000     5203.5000     5636.2500     3604.7500       68.7500        0.0000        1.0000
   10522.19981    13360.5000    14154.2500     8520.0000    12468.0000     2767.0000     5189.5000     5620.2500     3584.7500       67.7500        0.0000        1.0000
   10522.59888    13359.5000    14153.2500     8517.0000    12463.0000     2756.0000     5179.5000     5613.2500     3575.7500       67.7500        0.0000        1.0000
   10522.99797    13368.5000    14167.2500     8529.0000    12480.0000     2741.0000     5166.5000     5599.2500     3558.7500       65.7500        0.0000        1.0000
   10523.39706    13353.5000    14150.2500     8519.0000    12473.0000     2720.0000     5140.5000     5572.2500     3533.7500       64.7500        0.0000        1.0000
   10523.80229    13347.5000    14148.2500     8517.0000    12465.0000     2694.0000     5114.5000     5546.2500     3510.7500       64.7500        0.0000        1.0000
   10524.20140    13358.5000    14156.2500     8517.0000    12461.0000     2683.0000     5110.5000     5542.2500     3498.7500       63.7500        0.0000        1.0000
   10524.60051    13369.5000    14172.2500     8528.0000    12479.0000     2666.0000     5099.5000     5530.2500     3476.7500       61.7500        0.0000        1.0000
   10524.99963    13359.5000    14160.2500     8525.0000    12478.0000     2633.0000     5055.5000     5482.2500     3440.7500       60.7500        0.0000        1.0000
   10525.39875    13358.5000    14158.2500     8522.0000    12471.0000     2622.0000     5061.5000     5488.2500     3433.7500       59.7500        0.0000        1.0000
   10525.79789    13352.5000    14154.2500     8520.0000    12470.0000     2610.0000     5057.5000     5487.2500     3420.7500       58.7500        0.0000        1.0000
   10526.19703    13349.5000    14144.2500     8513.0000    12455.0000     2586.0000     5037.5000     5463.2500     3394.7500       57.7500        0.0000        1.0000
   10526.60231    13344.5000    14144.2500     8514.0000    12458.0000     2556.0000     5010.5000     5436.2500     3364.7500       55.7500        0.0000        1.0000
   10527.00147    13338.5000    14137.2500     8512.0000    12460.0000     2527.0000     4988.5000     5413.2500     3337.7500       54.7500        0.0000        1.0000
   10527.40063    13332.5000    14133.2500     8509.0000    12456.0000     2500.0000     4962.5000     5388.2500     3308.7500       52.7500        0.0000        1.0000
   10527.79980    13332.5000    14132.2500     8508.0000    12455.0000     2467.0000     4940.5000     5361.2500     3274.7500       51.7500        0.0000        1.0000
   10528.19897    13348.5000    14150.2500     8519.0000    12467.0000     2429.0000     4908.5000     5328.2500     3236.7500       49.7500        0.0000        1.0000
   10528.59815    13339.5000    14138.2500     8511.0000    12455.0000     2389.0000     4875.5000     5291.2500     3194.7500       47.7500        0.0000        1.0000
   10528.99734    13332.5000    14132.2500     8510.0000    12455.0000     2346.0000     4845.5000     5258.2500     3152.7500       45.7500        0.0000        1.0000
   10529.40268    13334.5000    14132.2500     8508.0000    12451.0000     2290.0000     4790.5000     5199.2500     3092.7500       43.7500        0.0000        1.0000
   10529.80188    13335.5000    14135.2500     8510.0000    12449.0000     2243.0000     4763.5000     5168.2500     3044.7500       41.7500        0.0000        1.0000
   10530.20109    13337.5000    14134.2500     8508.0000    12452.0000     2193.0000     4720.5000     5122.2500     2996.7500       39.7500        0.0000        1.0000
   10530.60031    13333.5000    14135.2500     8510.0000    12455.0000     2143.0000     4683.5000     5085.2500     2951.7500       37.7500        0.0000        1.0000
   10530.99953    13328.5000    14125.2500     8505.0000    12449.0000     2080.0000     4629.5000     5023.2500     2884.7500       34.7500        0.0000        1.0000
   10531.39877    13329.5000    14130.2500     8507.0000    12452.0000     1995.0000     4568.5000     4956.2500     2803.7500       32.7500        0.0000        1.0000
   10531.79800    13335.5000    14136.2500     8511.0000    12458.0000     1915.0000     4510.5000     4893.2500     2724.7500       28.7500        0.0000        1.0000
   10532.19725    13333.5000    14132.2500     8510.0000    12453.0000     1839.0000     4462.5000     4835.2500     2652.7500       26.7500        0.0000        1.0000
   10532.60264    13334.5000    14133.2500     8509.0000    12453.0000     1759.0000     4397.5000     4762.2500     2568.7500       24.7500        0.0000        1.0000
   10533.00190    13337.5000    14139.2500     8513.0000    12457.0000     1667.0000     4330.5000     4684.2500     2476.7500       21.7500        0.0000        1.0000
   10533.40117    13330.5000    14131.2500     8507.0000    12448.0000     1572.0000     4258.5000     4603.2500     2381.7500       18.7500        0.0000        1.0000
   10533.80044    13324.5000    14123.2500     8504.0000    12441.0000     1458.0000     4163.5000     4497.2500     2265.7500       16.7500        0.0000        1.0000
   10534.19973    13329.5000    14133.2500     8508.0000    12450.0000     1335.0000     4069.5000     4385.2500     2137.7500       12.7500        0.0000        1.0000
   10534.59901    13315.5000    14114.2500     8498.0000    12438.0000     1211.0000     3960.5000     4257.2500     2000.7500       10.7500        0.0000        1.0000
   10534.99831    13327.5000    14131.2500     8506.0000    12449.0000     1095.0000     3857.5000     4137.2500     1873.7500        9.7500        0.0000        1.0000
   10535.39761    13328.5000    14128.2500     8505.0000    12443.0000      957.0000     3729.5000     3985.2500     1712.7500        5.7500        0.0000        1.0000
   10535.80306    13318.5000    14120.2500     8503.0000    12443.0000      832.0000     3596.5000     3828.2500     1553.7500        4.7500        0.0000        1.0000
   10536.20238    13305.5000    14101.2500     8488.0000    12422.0000      698.0000     3430.5000     3630.2500     1368.7500        2.7500        0.0000        1.0000
   10536.60170    13292.5000    14092.2500     8488.0000    12425.0000      571.0000     3243.5000     3406.2500     1168.7500        2.7500        0.0000        1.0000
   10537.00103    13306.5000    14107.2500     8494.0000    12429.0000      470.0000     3054.5000     3178.2500      982.7500        0.7500        0.0000        1.0000
   10537.40037    13303.5000    14101.2500     8491.0000    12425.0000      399.0000     2878.5000     2969.2500      829.7500        1.7500        0.0000        1.0000
   10537.79971    13315.5000    14112.2500     8496.0000    12428.0000      332.0000     2673.5000     2725.2500      670.7500       -0.2500        0.0000        1.0000
   10538.19906    13304.5000    14105.2500     8490.0000    12424.0000      286.0000     2474.5000     2498.2500      542.7500        0.7500        0.0000        1.0000
   10538.59842    13299.5000    14097.2500     8486.0000    12420.0000      247.0000     2246.5000     2239.2500      418.7500        0.7500        0.0000        1.0000
   10538.99779    13297.5000    14093.2500     8485.0000    12416.0000      215.0000     1981.5000     1954.2500      310.7500       -0.2500        0.0000        1.0000
   10539.39716    13310.5000    14108.2500     8491.0000    12423.0000      195.0000     1747.5000     1715.2500      235.7500       -0.2500        0.0000        1.0000
   10539.80268    13309.5000    14106.2500     8492.0000    12425.0000      180.0000     1487.5000     1468.2500      173.7500        0.7500        0.0000        1.0000
   10540.20207    13309.5000    14112.2500     8497.0000    12429.0000      170.0000     1244.5000     1258.2500      130.7500       -0.2500        0.0000        1.0000
   10540.60146    13303.5000    14106.2500     8492.0000    12421.0000      169.0000     1028.5000     1087.2500      100.7500       -0.2500        0.0000        1.0000
   10541.00086    13292.5000    14092.2500     8484.0000    12401.0000      171.0000      857.5000      964.2500       81.7500       -0.2500        0.0000        1.0000
   10541.40027    13300.5000    14103.2500     8490.0000    12405.0000      178.0000      707.5000      866.2500       67.7500       -0.2500        0.0000        1.0000
   10541.79968    13294.5000    14096.2500     8486.0000    12398.0000      191.0000      575.5000      787.2500       57.7500       -0.2500        0.0000        1.0000
   10542.19910    13293.5000    14085.2500     8477.0000    12388.0000      206.0000      472.5000      727.2500       50.7500       -0.2500        0.0000        1.0000
   10542.59853    13289.5000    14089.2500     8481.0000    12407.0000      227.0000      403.5000      693.2500       47.7500        0.7500        0.0000        1.0000
   10542.99797    13283.5000    14080.2500     8474.0000    12412.0000      252.0000      350.5000      666.2500       46.7500       -0.2500        0.0000        1.0000
   10543.39741    13302.5000    14099.2500     8480.0000    12430.0000      276.0000      320.5000      652.2500       49.7500       -0.2500        0.0000        1.0000
   10543.80301    13303.5000    14105.2500     8479.0000    12433.0000      308.0000      301.5000      640.2500       54.7500       -0.2500        0.0000        1.0000
   10544.20246    13304.5000    14102.2500     8473.0000    12426.0000      332.0000      298.5000      638.2500       63.7500       -0.2500        0.0000        1.0000
   10544.60193    13299.5000    14100.2500     8475.0000    12426.0000      361.0000      314.5000      644.2500       76.7500       -0.2500        0.0000        1.0000
   10545.00140    13297.5000    14097.2500     8477.0000    12423.0000      386.0000      347.5000      661.2500       92.7500       -0.2500        0.0000        1.0000
   10545.40087    13286.5000    14086.2500     8479.0000    12422.0000      411.0000      399.5000      686.2500      114.7500        0.7500        0.0000        1.0000
   10545.80036    13287.5000    14080.2500     8485.0000    12417.0000      440.0000      490.5000      730.2500      149.7500       -0.2500        0.0000        1.0000
   10546.19985    13281.5000    14064.2500     8482.0000    12411.0000      466.0000      610.5000      787.2500      193.7500        0.7500        0.0000        1.0000
   10546.59935    13273.5000    14054.2500     8477.0000    12406.0000      484.0000      736.5000      848.2500      239.7500        0.7500        0.0000        1.0000
   10546.99886    13248.5000    14028.2500     8462.0000    12391.0000      500.0000      870.5000      915.2500      288.7500       -0.2500        0.0000        1.0000
   10547.39837    13266.5000    14047.2500     8469.0000    12398.0000      513.0000     1004.5000      986.2500      339.7500        0.7500        0.0000        1.0000
   10547.79789    13274.5000    14070.2500     8476.0000    12409.0000      525.0000     1155.5000     1076.2500      402.7500       -0.2500        0.0000        1.0000
   10548.19741    13270.5000    14074.2500     8475.0000    12403.0000      534.0000     1289.5000     1166.2500      461.7500       -0.2500        0.0000        1.0000
   10548.59695    13265.5000    14079.2500     8475.0000    12403.0000      543.0000     1417.5000     1267.2500      520.7500        0.7500        0.0000        1.0000
   10549.00264    13251.5000    14073.2500     8470.0000    12400.0000      551.0000     1528.5000     1376.2500      579.7500        0.7500        0.0000        1.0000
   10549.40218    13247.5000    14068.2500     8469.0000    12394.0000      556.0000     1609.5000     1475.2500      629.7500        0.7500        0.0000        1.0000
   10549.80174    13246.5000    14063.2500     8467.0000    12396.0000      559.0000     1672.5000     1585.2500      676.7500        0.7500        0.0000        1.0000
   10550.20130    13235.5000    14040.2500     8452.0000    12371.0000      568.0000     1722.5000     1701.2500      719.7500        0.7500        0.0000        1.0000
   10550.60087    13257.5000    14058.2500     8466.0000    12392.0000      575.0000     1761.5000     1835.2500      763.7500        0.7500        0.0000        1.0000
   10551.00045    13258.5000    14057.2500     8462.0000    12385.0000      576.0000     1770.5000     1932.2500      789.7500        1.7500        0.0000        1.0000
   10551.40003    13209.5000    13996.2500     8429.0000    12343.0000      578.0000     1772.5000     2034.2500      812.7500        0.7500        0.0000        1.0000
   10551.79962    13247.5000    14045.2500     8456.0000    12380.0000      581.0000     1770.5000     2130.2500      832.7500        1.7500        0.0000        1.0000
   10552.19922    13245.5000    14041.2500     8455.0000    12379.0000      584.0000     1768.5000     2227.2500      850.7500        1.7500        0.0000        1.0000
   10552.59882    13255.5000    14056.2500     8462.0000    12386.0000      584.0000     1750.5000     2319.2500      864.7500        1.7500        0.0000        1.0000
