XDAC V1.4 Datafile V1
"re4chan.000" created on 8/19/09 at 2:55:11 PM on X-23A2
Diffraction element= Si (311).  Ring energy= 2.80 GeV
E0= 10535.00
NUM_REGIONS= 4
SRB= -200 -20 30 60 15k
SRSS= 10 0.4 0.05k 0.05k
SPP= 1 1 1 0.25k
Settling time= 0.50


Offsets= 117.50 82.75 122.00 107.00 961.00 1596.50 1377.75 66.25 10.25 0.00 0.00
Gains= 8.00 8.00 8.00 8.00 7.00 7.00 7.00 7.00 9.00 0.00 1.00
4 channel ion chambers
1: Re powder  2: NH4ReO4  3: ReO3  4: ReO2
50/50 Ar/N2 in I0; Ar in It
--------------------------------------------------------------------------------
        Energy            I0           I02           I03           I04           It1           It2           It3           It4          Iref          temp       IntTime
   10334.99870    13720.5000    14600.2500     8839.0000    13071.0000     2864.0000     5182.5000     5645.2500     3671.7500       72.7500        0.0000        1.0000
   10345.00272    13228.5000    14209.2500     8768.0000    12976.0000     2776.0000     5068.5000     5625.2500     3669.7500       73.7500        0.0000        1.0000
   10354.99923    13757.5000    14609.2500     8827.0000    13012.0000     2900.0000     5232.5000     5686.2500     3698.7500       74.7500        0.0000        1.0000
   10365.00040    13769.5000    14613.2500     8823.0000    12999.0000     2925.0000     5266.5000     5725.2500     3725.7500       75.7500        0.0000        1.0000
   10375.00012    13743.5000    14580.2500     8800.0000    12956.0000     2932.0000     5271.5000     5724.2500     3724.7500       76.7500        0.0000        1.0000
   10384.99837    13740.5000    14577.2500     8796.0000    12947.0000     2954.0000     5305.5000     5763.2500     3753.7500       77.7500        0.0000        1.0000
   10395.00123    13691.5000    14515.2500     8756.0000    12880.0000     2960.0000     5312.5000     5767.2500     3760.7500       77.7500        0.0000        1.0000
   10405.00259    13710.5000    14542.2500     8771.0000    12898.0000     2983.0000     5349.5000     5806.2500     3786.7500       79.7500        0.0000        1.0000
   10415.00243    13678.5000    14485.2500     8727.0000    12812.0000     2993.0000     5353.5000     5803.2500     3787.7500       79.7500        0.0000        1.0000
   10425.00074    13658.5000    14464.2500     8711.0000    12785.0000     3006.0000     5374.5000     5825.2500     3803.7500       81.7500        0.0000        1.0000
   10434.99749    13638.5000    14441.2500     8694.0000    12753.0000     3016.0000     5389.5000     5839.2500     3815.7500       81.7500        0.0000        1.0000
   10444.99878    13655.5000    14458.2500     8703.0000    12766.0000     3042.0000     5427.5000     5879.2500     3845.7500       82.7500        0.0000        1.0000
   10454.99849    13538.5000    14280.2500     8613.0000    12664.0000     3031.0000     5388.5000     5844.2500     3837.7500       82.7500        0.0000        1.0000
   10465.00271    13670.5000    14472.2500     8707.0000    12760.0000     3074.0000     5487.5000     5938.2500     3888.7500       85.7500        0.0000        1.0000
   10474.99920    13593.5000    14391.2500     8661.0000    12695.0000     3068.0000     5474.5000     5926.2500     3882.7500       84.7500        0.0000        1.0000
   10485.00017    13505.5000    14390.2500     8665.0000    12703.0000     3057.0000     5492.5000     5949.2500     3896.7500       84.7500        0.0000        1.0000
   10494.99949    13567.5000    14373.2500     8652.0000    12669.0000     3063.0000     5481.5000     5939.2500     3882.7500       84.7500        0.0000        1.0000
   10504.99713    13546.5000    14343.2500     8630.0000    12645.0000     3024.0000     5432.5000     5888.2500     3835.7500       82.7500        0.0000        1.0000
   10514.99923    13557.5000    14340.2500     8618.0000    12605.0000     2964.0000     5386.5000     5838.2500     3756.7500       77.7500        0.0000        1.0000
   10515.39818    13542.5000    14345.2500     8631.0000    12639.0000     2951.0000     5378.5000     5834.2500     3753.7500       76.7500        0.0000        1.0000
   10515.79714    13549.5000    14341.2500     8624.0000    12617.0000     2944.0000     5366.5000     5822.2500     3743.7500       76.7500        0.0000        1.0000
   10516.20224    13531.5000    14329.2500     8621.0000    12627.0000     2935.0000     5356.5000     5814.2500     3737.7500       76.7500        0.0000        1.0000
   10516.60121    13557.5000    14351.2500     8635.0000    12638.0000     2938.0000     5366.5000     5825.2500     3738.7500       76.7500        0.0000        1.0000
   10517.00018    13542.5000    14339.2500     8624.0000    12625.0000     2927.0000     5351.5000     5807.2500     3724.7500       75.7500        0.0000        1.0000
   10517.39917    13540.5000    14331.2500     8622.0000    12620.0000     2920.0000     5342.5000     5800.2500     3720.7500       75.7500        0.0000        1.0000
   10517.79816    13554.5000    14343.2500     8625.0000    12617.0000     2913.0000     5338.5000     5793.2500     3705.7500       74.7500        0.0000        1.0000
   10518.19716    13544.5000    14337.2500     8626.0000    12626.0000     2899.0000     5322.5000     5780.2500     3696.7500       73.7500        0.0000        1.0000
   10518.60230    13549.5000    14342.2500     8630.0000    12630.0000     2898.0000     5326.5000     5784.2500     3696.7500       74.7500        0.0000        1.0000
   10519.00131    13542.5000    14334.2500     8624.0000    12620.0000     2890.0000     5319.5000     5776.2500     3684.7500       73.7500        0.0000        1.0000
   10519.40033    13524.5000    14319.2500     8614.0000    12609.0000     2878.0000     5308.5000     5767.2500     3677.7500       72.7500        0.0000        1.0000
   10519.79936    13531.5000    14320.2500     8616.0000    12608.0000     2869.0000     5297.5000     5749.2500     3659.7500       72.7500        0.0000        1.0000
   10520.19839    13540.5000    14335.2500     8626.0000    12625.0000     2851.0000     5272.5000     5722.2500     3638.7500       71.7500        0.0000        1.0000
   10520.59743    13533.5000    14328.2500     8621.0000    12620.0000     2843.0000     5277.5000     5732.2500     3638.7500       70.7500        0.0000        1.0000
   10521.00262    13543.5000    14340.2500     8629.0000    12633.0000     2838.0000     5275.5000     5731.2500     3633.7500       70.7500        0.0000        1.0000
   10521.40168    13542.5000    14343.2500     8629.0000    12631.0000     2821.0000     5257.5000     5715.2500     3619.7500       69.7500        0.0000        1.0000
   10521.80074    13522.5000    14319.2500     8617.0000    12617.0000     2800.0000     5228.5000     5683.2500     3594.7500       68.7500        0.0000        1.0000
   10522.19981    13553.5000    14350.2500     8632.0000    12630.0000     2802.0000     5249.5000     5703.2500     3594.7500       68.7500        0.0000        1.0000
   10522.59888    13527.5000    14323.2500     8619.0000    12618.0000     2785.0000     5230.5000     5685.2500     3579.7500       67.7500        0.0000        1.0000
   10522.99797    13523.5000    14317.2500     8613.0000    12607.0000     2775.0000     5223.5000     5677.2500     3564.7500       66.7500        0.0000        1.0000
   10523.39706    13536.5000    14333.2500     8625.0000    12624.0000     2758.0000     5209.5000     5659.2500     3545.7500       65.7500        0.0000        1.0000
   10523.80229    13537.5000    14333.2500     8624.0000    12621.0000     2738.0000     5191.5000     5643.2500     3527.7500       64.7500        0.0000        1.0000
   10524.20140    13525.5000    14320.2500     8616.0000    12612.0000     2716.0000     5164.5000     5616.2500     3504.7500       63.7500        0.0000        1.0000
   10524.60051    13554.5000    14353.2500     8635.0000    12636.0000     2704.0000     5161.5000     5610.2500     3489.7500       62.7500        0.0000        1.0000
   10524.99963    13537.5000    14338.2500     8628.0000    12627.0000     2686.0000     5144.5000     5592.2500     3467.7500       61.7500        0.0000        1.0000
   10525.39875    13526.5000    14325.2500     8620.0000    12617.0000     2666.0000     5128.5000     5576.2500     3446.7500       60.7500        0.0000        1.0000
   10525.79789    13536.5000    14332.2500     8624.0000    12623.0000     2644.0000     5111.5000     5560.2500     3424.7500       59.7500        0.0000        1.0000
   10526.19703    13526.5000    14324.2500     8619.0000    12614.0000     2616.0000     5089.5000     5536.2500     3398.7500       57.7500        0.0000        1.0000
   10526.60231    13542.5000    14344.2500     8631.0000    12630.0000     2586.0000     5066.5000     5509.2500     3366.7500       56.7500        0.0000        1.0000
   10527.00147    13546.5000    14346.2500     8630.0000    12628.0000     2560.0000     5047.5000     5486.2500     3337.7500       54.7500        0.0000        1.0000
   10527.40063    13523.5000    14320.2500     8615.0000    12609.0000     2528.0000     5014.5000     5457.2500     3309.7500       53.7500        0.0000        1.0000
   10527.79980    13545.5000    14344.2500     8630.0000    12629.0000     2497.0000     4994.5000     5434.2500     3274.7500       51.7500        0.0000        1.0000
   10528.19897    13508.5000    14304.2500     8606.0000    12595.0000     2449.0000     4941.5000     5378.2500     3225.7500       50.7500        0.0000        1.0000
   10528.59815    13524.5000    14321.2500     8619.0000    12613.0000     2423.0000     4926.5000     5359.2500     3198.7500       48.7500        0.0000        1.0000
   10528.99734    13532.5000    14331.2500     8623.0000    12621.0000     2391.0000     4901.5000     5333.2500     3167.7500       47.7500        0.0000        1.0000
   10529.40268    13540.5000    14340.2500     8629.0000    12626.0000     2343.0000     4871.5000     5300.2500     3122.7500       44.7500        0.0000        1.0000
   10529.80188    13517.5000    14310.2500     8608.0000    12598.0000     2284.0000     4818.5000     5242.2500     3061.7500       42.7500        0.0000        1.0000
   10530.20109    13528.5000    14327.2500     8619.0000    12613.0000     2242.0000     4789.5000     5212.2500     3022.7500       40.7500        0.0000        1.0000
   10530.60031    13545.5000    14347.2500     8632.0000    12632.0000     2201.0000     4760.5000     5178.2500     2981.7500       38.7500        0.0000        1.0000
   10530.99953    13531.5000    14327.2500     8619.0000    12612.0000     2137.0000     4706.5000     5118.2500     2915.7500       36.7500        0.0000        1.0000
   10531.39877    13528.5000    14327.2500     8621.0000    12617.0000     2070.0000     4659.5000     5069.2500     2853.7500       33.7500        0.0000        1.0000
   10531.79800    13535.5000    14336.2500     8625.0000    12620.0000     1994.0000     4602.5000     5004.2500     2777.7500       31.7500        0.0000        1.0000
   10532.19725    13521.5000    14319.2500     8615.0000    12605.0000     1905.0000     4531.5000     4921.2500     2686.7500       27.7500        0.0000        1.0000
   10532.60264    13526.5000    14325.2500     8617.0000    12605.0000     1817.0000     4465.5000     4849.2500     2602.7500       25.7500        0.0000        1.0000
   10533.00190    13510.5000    14308.2500     8610.0000    12598.0000     1721.0000     4390.5000     4764.2500     2507.7500       22.7500        0.0000        1.0000
   10533.40117    13518.5000    14317.2500     8613.0000    12604.0000     1633.0000     4324.5000     4687.2500     2420.7500       20.7500        0.0000        1.0000
   10533.80044    13518.5000    14320.2500     8614.0000    12606.0000     1529.0000     4247.5000     4600.2500     2318.7500       17.7500        0.0000        1.0000
   10534.19973    13512.5000    14310.2500     8606.0000    12596.0000     1399.0000     4145.5000     4482.2500     2186.7500       13.7500        0.0000        1.0000
   10534.59901    13503.5000    14299.2500     8604.0000    12590.0000     1263.0000     4033.5000     4349.2500     2041.7500       11.7500        0.0000        1.0000
   10534.99831    13495.5000    14291.2500     8599.0000    12582.0000     1165.0000     3942.5000     4245.2500     1934.7500        9.7500        0.0000        1.0000
   10535.39761    13519.5000    14318.2500     8611.0000    12597.0000     1053.0000     3839.5000     4122.2500     1805.7500        7.7500        0.0000        1.0000
   10535.80306    13515.5000    14311.2500     8609.0000    12594.0000      931.0000     3720.5000     3982.2500     1661.7500        5.7500        0.0000        1.0000
   10536.20238    13515.5000    14316.2500     8613.0000    12603.0000      818.0000     3603.5000     3843.2500     1520.7500        4.7500        0.0000        1.0000
   10536.60170    13511.5000    14308.2500     8609.0000    12590.0000      696.0000     3452.5000     3658.2500     1348.7500        3.7500        0.0000        1.0000
   10537.00103    13504.5000    14305.2500     8608.0000    12597.0000      568.0000     3259.5000     3430.2500     1149.7500        1.7500        0.0000        1.0000
   10537.40037    13504.5000    14305.2500     8608.0000    12597.0000      459.0000     3051.5000     3178.2500      948.7500        0.7500        0.0000        1.0000
   10537.79971    13502.5000    14302.2500     8603.0000    12585.0000      395.0000     2888.5000     2983.2500      810.7500        0.7500        0.0000        1.0000
   10538.19906    13514.5000    14315.2500     8613.0000    12598.0000      338.0000     2701.5000     2764.2500      671.7500        0.7500        0.0000        1.0000
   10538.59842    13481.5000    14277.2500     8592.0000    12571.0000      287.0000     2485.5000     2515.2500      534.7500       -0.2500        0.0000        1.0000
   10538.99779    13491.5000    14292.2500     8601.0000    12586.0000      247.0000     2246.5000     2246.2500      409.7500       -0.2500        0.0000        1.0000
   10539.39716    13482.5000    14279.2500     8591.0000    12570.0000      213.0000     1962.5000     1940.2500      296.7500       -0.2500        0.0000        1.0000
   10539.80268    13497.5000    14298.2500     8604.0000    12585.0000      192.0000     1674.5000     1651.2500      212.7500       -0.2500        0.0000        1.0000
   10540.20207    13480.5000    14275.2500     8587.0000    12557.0000      179.0000     1415.5000     1411.2500      156.7500       -0.2500        0.0000        1.0000
   10540.60146    13495.5000    14294.2500     8600.0000    12579.0000      173.0000     1211.5000     1238.2500      121.7500       -0.2500        0.0000        1.0000
   10541.00086    13511.5000    14308.2500     8607.0000    12581.0000      172.0000      986.5000     1065.2500       93.7500        0.7500        0.0000        1.0000
   10541.40027    13497.5000    14297.2500     8602.0000    12566.0000      179.0000      760.5000      908.2500       71.7500       -0.2500        0.0000        1.0000
   10541.79968    13481.5000    14280.2500     8591.0000    12549.0000      192.0000      595.5000      807.2500       57.7500       -0.2500        0.0000        1.0000
   10542.19910    13480.5000    14282.2500     8594.0000    12560.0000      209.0000      490.5000      748.2500       50.7500       -0.2500        0.0000        1.0000
   10542.59853    13465.5000    14262.2500     8582.0000    12552.0000      228.0000      418.5000      709.2500       47.7500       -0.2500        0.0000        1.0000
   10542.99797    13474.5000    14271.2500     8582.0000    12565.0000      249.0000      369.5000      684.2500       46.7500       -0.2500        0.0000        1.0000
   10543.39741    13492.5000    14289.2500     8588.0000    12580.0000      278.0000      326.5000      663.2500       49.7500       -0.2500        0.0000        1.0000
   10543.80301    13438.5000    14232.2500     8551.0000    12543.0000      308.0000      302.5000      648.2500       54.7500       -0.2500        0.0000        1.0000
   10544.20246    13465.5000    14255.2500     8559.0000    12554.0000      333.0000      301.5000      647.2500       62.7500       -0.2500        0.0000        1.0000
   10544.60193    13477.5000    14271.2500     8574.0000    12570.0000      362.0000      314.5000      654.2500       74.7500       -0.2500        0.0000        1.0000
   10545.00140    13476.5000    14275.2500     8579.0000    12572.0000      388.0000      345.5000      668.2500       90.7500        0.7500        0.0000        1.0000
   10545.40087    13483.5000    14282.2500     8592.0000    12583.0000      410.0000      388.5000      689.2500      108.7500       -0.2500        0.0000        1.0000
   10545.80036    13484.5000    14279.2500     8592.0000    12577.0000      430.0000      441.5000      716.2500      129.7500       -0.2500        0.0000        1.0000
   10546.19985    13475.5000    14263.2500     8592.0000    12576.0000      455.0000      542.5000      764.2500      165.7500       -0.2500        0.0000        1.0000
   10546.59935    13470.5000    14247.2500     8584.0000    12557.0000      473.0000      633.5000      806.2500      197.7500       -0.2500        0.0000        1.0000
   10546.99886    13458.5000    14232.2500     8580.0000    12556.0000      492.0000      757.5000      867.2500      242.7500        0.7500        0.0000        1.0000
   10547.39837    13436.5000    14210.2500     8566.0000    12539.0000      507.0000      890.5000      934.2500      292.7500        0.7500        0.0000        1.0000
   10547.79789    13476.5000    14262.2500     8591.0000    12573.0000      524.0000     1053.5000     1024.2500      354.7500       -0.2500        0.0000        1.0000
   10548.19741    13467.5000    14262.2500     8585.0000    12559.0000      535.0000     1203.5000     1115.2500      415.7500       -0.2500        0.0000        1.0000
   10548.59695    13446.5000    14250.2500     8576.0000    12554.0000      542.0000     1327.5000     1202.2500      470.7500        0.7500        0.0000        1.0000
   10549.00264    13454.5000    14274.2500     8589.0000    12573.0000      551.0000     1463.5000     1314.2500      535.7500        0.7500        0.0000        1.0000
   10549.40218    13446.5000    14269.2500     8585.0000    12565.0000      559.0000     1571.5000     1426.2500      593.7500        0.7500        0.0000        1.0000
   10549.80174    13450.5000    14275.2500     8588.0000    12569.0000      566.0000     1651.5000     1531.2500      643.7500        0.7500        0.0000        1.0000
   10550.20130    13455.5000    14277.2500     8591.0000    12573.0000      572.0000     1712.5000     1640.2500      686.7500        0.7500        0.0000        1.0000
   10550.60087    13467.5000    14275.2500     8590.0000    12573.0000      579.0000     1764.5000     1776.2500      736.7500        0.7500        0.0000        1.0000
   10551.00045    13469.5000    14271.2500     8587.0000    12570.0000      586.0000     1796.5000     1918.2500      776.7500        0.7500        0.0000        1.0000
   10551.40003    13468.5000    14267.2500     8585.0000    12563.0000      587.0000     1798.5000     2028.2500      804.7500        0.7500        0.0000        1.0000
   10551.79962    13469.5000    14267.2500     8585.0000    12563.0000      589.0000     1799.5000     2144.2500      828.7500        1.7500        0.0000        1.0000
   10552.19922    13478.5000    14279.2500     8592.0000    12574.0000      592.0000     1794.5000     2240.2500      847.7500        0.7500        0.0000        1.0000
   10552.59882    13478.5000    14282.2500     8595.0000    12580.0000      593.0000     1779.5000     2344.2500      863.7500        1.7500        0.0000        1.0000
