XDAC V1.4 Datafile V1
"re4chan.002" created on 8/19/09 at 3:34:43 PM on X-23A2
Diffraction element= Si (311).  Ring energy= 2.80 GeV
E0= 10535.00
NUM_REGIONS= 4
SRB= -200 -20 30 60 15k
SRSS= 10 0.4 0.05k 0.05k
SPP= 1 1 1 0.25k
Settling time= 0.50


Offsets= 117.50 82.75 122.00 107.00 961.00 1596.50 1377.75 66.25 10.25 0.00 0.00
Gains= 8.00 8.00 8.00 8.00 7.00 7.00 7.00 7.00 9.00 0.00 1.00
4 channel ion chambers
1: Re powder  2: NH4ReO4  3: ReO3  4: ReO2
50/50 Ar/N2 in I0; Ar in It
--------------------------------------------------------------------------------
        Energy            I0           I02           I03           I04           It1           It2           It3           It4          Iref          temp       IntTime
   10334.99870    13418.5000    14239.2500     8588.0000    12634.0000     2823.0000     5098.5000     5500.2500     3634.7500       70.7500        0.0000        1.0000
   10345.00272    12887.5000    13941.2500     8559.0000    12646.0000     2731.0000     5022.5000     5513.2500     3666.7500       72.7500        0.0000        1.0000
   10354.99923    13397.5000    14223.2500     8583.0000    12628.0000     2856.0000     5149.5000     5560.2500     3685.7500       73.7500        0.0000        1.0000
   10365.00040    13417.5000    14242.2500     8593.0000    12629.0000     2879.0000     5184.5000     5600.2500     3714.7500       74.7500        0.0000        1.0000
   10375.00012    13383.5000    14200.2500     8566.0000    12584.0000     2890.0000     5200.5000     5612.2500     3718.7500       74.7500        0.0000        1.0000
   10384.99837    13339.5000    14158.2500     8543.0000    12554.0000     2902.0000     5215.5000     5629.2500     3738.7500       76.7500        0.0000        1.0000
   10395.00123    13305.5000    14112.2500     8509.0000    12495.0000     2908.0000     5221.5000     5633.2500     3739.7500       77.7500        0.0000        1.0000
   10405.00259    13334.5000    14144.2500     8527.0000    12515.0000     2928.0000     5252.5000     5668.2500     3765.7500       78.7500        0.0000        1.0000
   10415.00243    13284.5000    14079.2500     8480.0000    12435.0000     2939.0000     5263.5000     5673.2500     3765.7500       78.7500        0.0000        1.0000
   10425.00074    13291.5000    14085.2500     8483.0000    12430.0000     2956.0000     5290.5000     5701.2500     3784.7500       79.7500        0.0000        1.0000
   10434.99749    13254.5000    14042.2500     8452.0000    12374.0000     2961.0000     5297.5000     5704.2500     3786.7500       80.7500        0.0000        1.0000
   10444.99878    13296.5000    14085.2500     8478.0000    12413.0000     2975.0000     5318.5000     5729.2500     3810.7500       81.7500        0.0000        1.0000
   10454.99849    13232.5000    13969.2500     8421.0000    12353.0000     2988.0000     5314.5000     5727.2500     3819.7500       81.7500        0.0000        1.0000
   10465.00271    13283.5000    14075.2500     8470.0000    12393.0000     2997.0000     5354.5000     5767.2500     3840.7500       82.7500        0.0000        1.0000
   10474.99920    13252.5000    14042.2500     8449.0000    12360.0000     3009.0000     5376.5000     5783.2500     3850.7500       83.7500        0.0000        1.0000
   10485.00017    13166.5000    14025.2500     8442.0000    12353.0000     3001.0000     5396.5000     5811.2500     3868.7500       83.7500        0.0000        1.0000
   10494.99949    13221.5000    14011.2500     8430.0000    12316.0000     3017.0000     5406.5000     5821.2500     3861.7500       83.7500        0.0000        1.0000
   10504.99713    13200.5000    13984.2500     8413.0000    12294.0000     2989.0000     5374.5000     5791.2500     3831.7500       81.7500        0.0000        1.0000
   10514.99923    13180.5000    13959.2500     8396.0000    12261.0000     2909.0000     5299.5000     5713.2500     3734.7500       76.7500        0.0000        1.0000
   10515.39818    13182.5000    13970.2500     8406.0000    12285.0000     2904.0000     5301.5000     5720.2500     3738.7500       76.7500        0.0000        1.0000
   10515.79714    13182.5000    13967.2500     8402.0000    12276.0000     2898.0000     5294.5000     5712.2500     3728.7500       76.7500        0.0000        1.0000
   10516.20224    13155.5000    13936.2500     8385.0000    12256.0000     2887.0000     5277.5000     5696.2500     3718.7500       74.7500        0.0000        1.0000
   10516.60121    13180.5000    13965.2500     8403.0000    12279.0000     2886.0000     5281.5000     5698.2500     3717.7500       75.7500        0.0000        1.0000
   10517.00018    13179.5000    13966.2500     8401.0000    12274.0000     2876.0000     5268.5000     5684.2500     3703.7500       74.7500        0.0000        1.0000
   10517.39917    13194.5000    13979.2500     8410.0000    12286.0000     2876.0000     5272.5000     5687.2500     3700.7500       73.7500        0.0000        1.0000
   10517.79816    13190.5000    13975.2500     8410.0000    12286.0000     2862.0000     5262.5000     5678.2500     3692.7500       73.7500        0.0000        1.0000
   10518.19716    13179.5000    13963.2500     8400.0000    12272.0000     2843.0000     5229.5000     5639.2500     3660.7500       72.7500        0.0000        1.0000
   10518.60230    13175.5000    13958.2500     8397.0000    12271.0000     2834.0000     5224.5000     5633.2500     3655.7500       72.7500        0.0000        1.0000
   10519.00131    13148.5000    13933.2500     8381.0000    12256.0000     2831.0000     5225.5000     5639.2500     3657.7500       72.7500        0.0000        1.0000
   10519.40033    13172.5000    13956.2500     8397.0000    12272.0000     2826.0000     5220.5000     5633.2500     3646.7500       71.7500        0.0000        1.0000
   10519.79936    13180.5000    13965.2500     8402.0000    12276.0000     2819.0000     5220.5000     5635.2500     3643.7500       70.7500        0.0000        1.0000
   10520.19839    13176.5000    13961.2500     8400.0000    12273.0000     2800.0000     5199.5000     5614.2500     3625.7500       70.7500        0.0000        1.0000
   10520.59743    13188.5000    13976.2500     8407.0000    12282.0000     2793.0000     5192.5000     5610.2500     3616.7500       69.7500        0.0000        1.0000
   10521.00262    13181.5000    13969.2500     8406.0000    12280.0000     2776.0000     5170.5000     5580.2500     3588.7500       69.7500        0.0000        1.0000
   10521.40168    13188.5000    13978.2500     8409.0000    12285.0000     2766.0000     5161.5000     5579.2500     3589.7500       68.7500        0.0000        1.0000
   10521.80074    13184.5000    13972.2500     8405.0000    12280.0000     2770.0000     5178.5000     5591.2500     3586.7500       67.7500        0.0000        1.0000
   10522.19981    13176.5000    13961.2500     8400.0000    12274.0000     2755.0000     5166.5000     5578.2500     3571.7500       67.7500        0.0000        1.0000
   10522.59888    13164.5000    13949.2500     8394.0000    12270.0000     2739.0000     5151.5000     5563.2500     3558.7500       66.7500        0.0000        1.0000
   10522.99797    13185.5000    13971.2500     8403.0000    12273.0000     2728.0000     5140.5000     5550.2500     3539.7500       65.7500        0.0000        1.0000
   10523.39706    13174.5000    13963.2500     8401.0000    12275.0000     2709.0000     5126.5000     5537.2500     3524.7500       64.7500        0.0000        1.0000
   10523.80229    13166.5000    13953.2500     8396.0000    12267.0000     2693.0000     5111.5000     5522.2500     3507.7500       62.7500        0.0000        1.0000
   10524.20140    13179.5000    13966.2500     8403.0000    12276.0000     2679.0000     5102.5000     5514.2500     3492.7500       62.7500        0.0000        1.0000
   10524.60051    13181.5000    13970.2500     8407.0000    12282.0000     2663.0000     5092.5000     5504.2500     3475.7500       60.7500        0.0000        1.0000
   10524.99963    13176.5000    13962.2500     8400.0000    12274.0000     2636.0000     5066.5000     5475.2500     3446.7500       59.7500        0.0000        1.0000
   10525.39875    13165.5000    13953.2500     8396.0000    12268.0000     2609.0000     5039.5000     5449.2500     3418.7500       58.7500        0.0000        1.0000
   10525.79789    13167.5000    13955.2500     8396.0000    12268.0000     2584.0000     5016.5000     5422.2500     3390.7500       57.7500        0.0000        1.0000
   10526.19703    13172.5000    13961.2500     8402.0000    12273.0000     2559.0000     5000.5000     5406.2500     3366.7500       56.7500        0.0000        1.0000
   10526.60231    13170.5000    13959.2500     8400.0000    12271.0000     2523.0000     4963.5000     5368.2500     3328.7500       54.7500        0.0000        1.0000
   10527.00147    13173.5000    13960.2500     8399.0000    12270.0000     2501.0000     4952.5000     5354.2500     3305.7500       53.7500        0.0000        1.0000
   10527.40063    13165.5000    13953.2500     8396.0000    12266.0000     2469.0000     4923.5000     5324.2500     3273.7500       51.7500        0.0000        1.0000
   10527.79980    13166.5000    13956.2500     8398.0000    12269.0000     2426.0000     4883.5000     5281.2500     3231.7500       49.7500        0.0000        1.0000
   10528.19897    13165.5000    13951.2500     8394.0000    12265.0000     2384.0000     4842.5000     5235.2500     3183.7500       48.7500        0.0000        1.0000
   10528.59815    13150.5000    13936.2500     8387.0000    12252.0000     2338.0000     4796.5000     5189.2500     3138.7500       46.7500        0.0000        1.0000
   10528.99734    13154.5000    13942.2500     8390.0000    12259.0000     2306.0000     4779.5000     5168.2500     3100.7500       44.7500        0.0000        1.0000
   10529.40268    13150.5000    13939.2500     8387.0000    12258.0000     2259.0000     4748.5000     5133.2500     3059.7500       42.7500        0.0000        1.0000
   10529.80188    13147.5000    13933.2500     8384.0000    12248.0000     2216.0000     4720.5000     5103.2500     3016.7500       40.7500        0.0000        1.0000
   10530.20109    13142.5000    13926.2500     8380.0000    12245.0000     2160.0000     4679.5000     5059.2500     2962.7500       38.7500        0.0000        1.0000
   10530.60031    13147.5000    13933.2500     8383.0000    12243.0000     2097.0000     4631.5000     5007.2500     2898.7500       35.7500        0.0000        1.0000
   10530.99953    13143.5000    13930.2500     8382.0000    12246.0000     2037.0000     4584.5000     4955.2500     2840.7500       33.7500        0.0000        1.0000
   10531.39877    13140.5000    13926.2500     8381.0000    12245.0000     1946.0000     4514.5000     4879.2500     2749.7500       30.7500        0.0000        1.0000
   10531.79800    13145.5000    13933.2500     8383.0000    12249.0000     1877.0000     4467.5000     4826.2500     2678.7500       28.7500        0.0000        1.0000
   10532.19725    13140.5000    13927.2500     8378.0000    12238.0000     1802.0000     4407.5000     4757.2500     2606.7500       26.7500        0.0000        1.0000
   10532.60264    13146.5000    13934.2500     8386.0000    12249.0000     1729.0000     4356.5000     4698.2500     2533.7500       23.7500        0.0000        1.0000
   10533.00190    13126.5000    13913.2500     8373.0000    12234.0000     1630.0000     4275.5000     4608.2500     2434.7500       20.7500        0.0000        1.0000
   10533.40117    13137.5000    13924.2500     8378.0000    12241.0000     1527.0000     4197.5000     4518.2500     2329.7500       17.7500        0.0000        1.0000
   10533.80044    13141.5000    13929.2500     8381.0000    12241.0000     1407.0000     4105.5000     4411.2500     2206.7500       14.7500        0.0000        1.0000
   10534.19973    13139.5000    13925.2500     8377.0000    12239.0000     1270.0000     3994.5000     4282.2500     2064.7500       11.7500        0.0000        1.0000
   10534.59901    13123.5000    13911.2500     8371.0000    12232.0000     1120.0000     3865.5000     4132.2500     1901.7500        8.7500        0.0000        1.0000
   10534.99831    13125.5000    13913.2500     8370.0000    12229.0000     1007.0000     3759.5000     4007.2500     1769.7500        6.7500        0.0000        1.0000
   10535.39761    13138.5000    13927.2500     8379.0000    12240.0000      903.0000     3655.5000     3883.2500     1641.7500        6.7500        0.0000        1.0000
   10535.80306    13139.5000    13926.2500     8380.0000    12240.0000      785.0000     3518.5000     3723.2500     1485.7500        3.7500        0.0000        1.0000
   10536.20238    13117.5000    13905.2500     8368.0000    12226.0000      672.0000     3373.5000     3550.2500     1324.7500        3.7500        0.0000        1.0000
   10536.60170    13131.5000    13920.2500     8375.0000    12235.0000      576.0000     3233.5000     3382.2500     1174.7500        1.7500        0.0000        1.0000
   10537.00103    13113.5000    13902.2500     8367.0000    12223.0000      466.0000     3023.5000     3133.2500      974.7500        0.7500        0.0000        1.0000
   10537.40037    13110.5000    13898.2500     8362.0000    12217.0000      375.0000     2797.5000     2864.2500      780.7500        0.7500        0.0000        1.0000
   10537.79971    13110.5000    13897.2500     8366.0000    12224.0000      325.0000     2634.5000     2674.2500      655.7500        0.7500        0.0000        1.0000
   10538.19906    13130.5000    13916.2500     8372.0000    12228.0000      290.0000     2477.5000     2491.2500      552.7500       -0.2500        0.0000        1.0000
   10538.59842    13124.5000    13909.2500     8367.0000    12220.0000      247.0000     2246.5000     2229.2500      425.7500       -0.2500        0.0000        1.0000
   10538.99779    13123.5000    13908.2500     8366.0000    12218.0000      214.0000     1962.5000     1924.2500      306.7500       -0.2500        0.0000        1.0000
   10539.39716    13118.5000    13904.2500     8365.0000    12215.0000      191.0000     1688.5000     1646.2500      220.7500       -0.2500        0.0000        1.0000
   10539.80268    13122.5000    13907.2500     8367.0000    12217.0000      178.0000     1444.5000     1419.2500      165.7500        0.7500        0.0000        1.0000
   10540.20207    13119.5000    13902.2500     8361.0000    12211.0000      171.0000     1209.5000     1218.2500      125.7500       -0.2500        0.0000        1.0000
   10540.60146    13116.5000    13900.2500     8364.0000    12210.0000      168.0000     1011.5000     1064.2500       98.7500       -0.2500        0.0000        1.0000
   10541.00086    13117.5000    13902.2500     8364.0000    12204.0000      170.0000      855.5000      951.2500       81.7500       -0.2500        0.0000        1.0000
   10541.40027    13107.5000    13895.2500     8359.0000    12191.0000      177.0000      694.5000      845.2500       66.7500       -0.2500        0.0000        1.0000
   10541.79968    13113.5000    13889.2500     8353.0000    12178.0000      192.0000      551.5000      760.2500       54.7500        0.7500        0.0000        1.0000
   10542.19910    13111.5000    13894.2500     8356.0000    12190.0000      214.0000      440.5000      700.2500       48.7500       -0.2500        0.0000        1.0000
   10542.59853    13111.5000    13899.2500     8359.0000    12202.0000      231.0000      392.5000      676.2500       46.7500       -0.2500        0.0000        1.0000
   10542.99797    13108.5000    13889.2500     8350.0000    12201.0000      253.0000      345.5000      653.2500       46.7500       -0.2500        0.0000        1.0000
   10543.39741    13110.5000    13893.2500     8350.0000    12212.0000      283.0000      312.5000      636.2500       49.7500       -0.2500        0.0000        1.0000
   10543.80301    13106.5000    13891.2500     8343.0000    12213.0000      312.0000      296.5000      627.2500       57.7500       -0.2500        0.0000        1.0000
   10544.20246    13107.5000    13890.2500     8341.0000    12212.0000      339.0000      299.5000      628.2500       66.7500       -0.2500        0.0000        1.0000
   10544.60193    13103.5000    13889.2500     8342.0000    12211.0000      361.0000      314.5000      634.2500       77.7500       -0.2500        0.0000        1.0000
   10545.00140    13098.5000    13880.2500     8342.0000    12204.0000      386.0000      347.5000      650.2500       94.7500       -0.2500        0.0000        1.0000
   10545.40087    13098.5000    13879.2500     8349.0000    12204.0000      410.0000      400.5000      675.2500      114.7500       -0.2500        0.0000        1.0000
   10545.80036    13101.5000    13873.2500     8353.0000    12202.0000      431.0000      468.5000      707.2500      141.7500       -0.2500        0.0000        1.0000
   10546.19985    13102.5000    13872.2500     8358.0000    12209.0000      457.0000      577.5000      759.2500      181.7500       -0.2500        0.0000        1.0000
   10546.59935    13098.5000    13859.2500     8354.0000    12204.0000      480.0000      714.5000      826.2500      230.7500        0.7500        0.0000        1.0000
   10546.99886    13080.5000    13843.2500     8346.0000    12197.0000      496.0000      846.5000      890.2500      278.7500       -0.2500        0.0000        1.0000
   10547.39837    13090.5000    13857.2500     8348.0000    12197.0000      511.0000      996.5000      970.2500      337.7500        0.7500        0.0000        1.0000
   10547.79789    13084.5000    13859.2500     8347.0000    12194.0000      520.0000     1137.5000     1052.2500      395.7500        0.7500        0.0000        1.0000
   10548.19741    13092.5000    13880.2500     8353.0000    12203.0000      531.0000     1280.5000     1147.2500      455.7500        0.7500        0.0000        1.0000
   10548.59695    13071.5000    13862.2500     8338.0000    12181.0000      539.0000     1402.5000     1242.2500      512.7500        0.7500        0.0000        1.0000
   10549.00264    13056.5000    13867.2500     8345.0000    12200.0000      547.0000     1520.5000     1358.2500      576.7500        0.7500        0.0000        1.0000
   10549.40218    13071.5000    13878.2500     8350.0000    12199.0000      557.0000     1631.5000     1501.2500      644.7500        0.7500        0.0000        1.0000
   10549.80174    13076.5000    13876.2500     8349.0000    12196.0000      564.0000     1694.5000     1621.2500      693.7500        0.7500        0.0000        1.0000
   10550.20130    13065.5000    13859.2500     8340.0000    12188.0000      569.0000     1732.5000     1730.2500      732.7500        1.7500        0.0000        1.0000
   10550.60087    13093.5000    13880.2500     8350.0000    12200.0000      574.0000     1756.5000     1824.2500      760.7500        1.7500        0.0000        1.0000
   10551.00045    13089.5000    13870.2500     8346.0000    12195.0000      578.0000     1770.5000     1932.2500      790.7500        0.7500        0.0000        1.0000
   10551.40003    13085.5000    13865.2500     8343.0000    12189.0000      578.0000     1768.5000     2038.2500      814.7500        0.7500        0.0000        1.0000
   10551.79962    13089.5000    13870.2500     8345.0000    12190.0000      580.0000     1764.5000     2131.2500      833.7500        1.7500        0.0000        1.0000
   10552.19922    13086.5000    13869.2500     8344.0000    12195.0000      581.0000     1749.5000     2243.2500      850.7500        1.7500        0.0000        1.0000
   10552.59882    13096.5000    13878.2500     8352.0000    12201.0000      582.0000     1731.5000     2342.2500      865.7500        0.7500        0.0000        1.0000
